# Units:                                                                        
#  "lambda" is in Angstroms                                                     
#  "pass" is the contribution to the detector signal per photon                 
#    entering the atmosphere of Earth                                           
#                                                                               
# Bandpass Name(s): DES r                                                       
#                                                                               
# Instrument: Dark Energy Camera (DECam)                                        
#                                                                               
# Determined by: Huan Lin                                                       
#                                                                               
# Date of determination: 2010-08-06                                             
#                                                                               
# Meaning of/Reason for default column: 1.3 airmass; typical for observations   
#                                                                               
# Notes:                                                                        
#                                                                               
#  Curves are total transmission = product of                                   
#   atmosphere, telescope primary, optical corrector,                           
#   CCD (relative) QE, and filter transmission                                  
#    atmosphereFile   palomarextinct.dat                                        
#       airmass        1.30                                                     
#       altitude       2200.0 meters                                            
#    primaryFile      CFHT_Primary_Transmission.txt                             
#    correctorFile    CFHT_MegaPrime_Transmission.txt                           
#    ccdQEFile        qe173K_edit.dat x 0.88                                    
#    filterFile       DES_r.txt x 0.89                                          
#                                                                               
#  Filter transmissions are those of Ashai's 100mm (4-inch) DES filters         
#   (March 2010;  DES docdb #4295)                                              
#                                                                               
# Huan Lin 2010-08-06                                                           
#
#typedef struct {
#double lambda;
#double pass;
#} KFILTER;
lambda 	trans
 3000.00      0.00000
 3005.00      0.00000
 3010.00      0.00000
 3015.00      0.00000
 3020.00      0.00000
 3025.00      0.00000
 3030.00      0.00000
 3035.00      0.00000
 3040.00      0.00000
 3045.00      0.00000
 3050.00      0.00000
 3055.00      0.00000
 3060.00      0.00000
 3065.00      0.00000
 3070.00      0.00000
 3075.00      0.00000
 3080.00      0.00000
 3085.00      0.00000
 3090.00      0.00000
 3095.00      0.00000
 3100.00      0.00000
 3105.00      0.00000
 3110.00      0.00000
 3115.00      0.00000
 3120.00      0.00000
 3125.00      0.00000
 3130.00      0.00000
 3135.00      0.00000
 3140.00      0.00000
 3145.00      0.00000
 3150.00      0.00000
 3155.00      0.00000
 3160.00      0.00000
 3165.00      0.00000
 3170.00      0.00000
 3175.00      0.00000
 3180.00      0.00000
 3185.00      0.00000
 3190.00      0.00000
 3195.00      0.00000
 3200.00      0.00000
 3205.00      0.00000
 3210.00      0.00000
 3215.00      0.00000
 3220.00      0.00000
 3225.00      0.00000
 3230.00      0.00000
 3235.00      0.00000
 3240.00      0.00000
 3245.00      0.00000
 3250.00      0.00000
 3255.00      0.00000
 3260.00      0.00000
 3265.00      0.00000
 3270.00      0.00000
 3275.00      0.00000
 3280.00      0.00000
 3285.00      0.00000
 3290.00      0.00000
 3295.00      0.00000
 3300.00      0.00000
 3305.00      0.00000
 3310.00      0.00000
 3315.00      0.00000
 3320.00      0.00000
 3325.00      0.00000
 3330.00      0.00000
 3335.00      0.00000
 3340.00      0.00000
 3345.00      0.00000
 3350.00      0.00000
 3355.00      0.00000
 3360.00      0.00000
 3365.00      0.00000
 3370.00      0.00000
 3375.00      0.00000
 3380.00      0.00000
 3385.00      0.00000
 3390.00      0.00000
 3395.00      0.00000
 3400.00      0.00000
 3405.00      0.00000
 3410.00      0.00000
 3415.00      0.00000
 3420.00      0.00000
 3425.00      0.00000
 3430.00      0.00000
 3435.00      0.00000
 3440.00      0.00000
 3445.00      0.00000
 3450.00      0.00000
 3455.00      0.00000
 3460.00      0.00000
 3465.00      0.00000
 3470.00      0.00000
 3475.00      0.00000
 3480.00      0.00000
 3485.00      0.00000
 3490.00      0.00000
 3495.00      0.00000
 3500.00      0.00000
 3505.00      0.00000
 3510.00      0.00000
 3515.00      0.00000
 3520.00      0.00000
 3525.00      0.00000
 3530.00      0.00000
 3535.00      0.00000
 3540.00      0.00000
 3545.00      0.00000
 3550.00      0.00000
 3555.00      0.00000
 3560.00      0.00000
 3565.00      0.00000
 3570.00      0.00000
 3575.00      0.00000
 3580.00      0.00000
 3585.00      0.00000
 3590.00      0.00000
 3595.00      0.00000
 3600.00      0.00000
 3605.00      0.00000
 3610.00      0.00000
 3615.00      0.00000
 3620.00      0.00000
 3625.00      0.00000
 3630.00      0.00000
 3635.00      0.00000
 3640.00      0.00000
 3645.00      0.00000
 3650.00      0.00000
 3655.00      0.00000
 3660.00      0.00000
 3665.00      0.00000
 3670.00      0.00000
 3675.00      0.00000
 3680.00      0.00000
 3685.00      0.00000
 3690.00      0.00000
 3695.00      0.00000
 3700.00      0.00000
 3705.00      0.00000
 3710.00      0.00000
 3715.00      0.00000
 3720.00      0.00000
 3725.00      0.00000
 3730.00      0.00000
 3735.00      0.00000
 3740.00      0.00000
 3745.00      0.00000
 3750.00      0.00000
 3755.00      0.00000
 3760.00      0.00000
 3765.00      0.00000
 3770.00      0.00000
 3775.00      0.00000
 3780.00      0.00000
 3785.00      0.00000
 3790.00      0.00000
 3795.00      0.00000
 3800.00      0.00000
 3805.00      0.00000
 3810.00      0.00000
 3815.00      0.00000
 3820.00      0.00000
 3825.00      0.00000
 3830.00      0.00000
 3835.00      0.00000
 3840.00      0.00000
 3845.00      0.00000
 3850.00      0.00000
 3855.00      0.00000
 3860.00      0.00000
 3865.00      0.00000
 3870.00      0.00000
 3875.00      0.00000
 3880.00      0.00000
 3885.00      0.00000
 3890.00      0.00000
 3895.00      0.00000
 3900.00      0.00000
 3905.00      0.00000
 3910.00      0.00000
 3915.00      0.00000
 3920.00      0.00000
 3925.00      0.00000
 3930.00      0.00000
 3935.00      0.00000
 3940.00      0.00000
 3945.00      0.00000
 3950.00      0.00000
 3955.00      0.00000
 3960.00      0.00000
 3965.00      0.00000
 3970.00      0.00000
 3975.00      0.00000
 3980.00      0.00000
 3985.00      0.00000
 3990.00      0.00000
 3995.00      0.00000
 4000.00      0.00000
 4005.00      0.00000
 4010.00      0.00000
 4015.00      0.00000
 4020.00      0.00000
 4025.00      0.00000
 4030.00      0.00000
 4035.00      0.00000
 4040.00      0.00000
 4045.00      0.00000
 4050.00      0.00000
 4055.00      0.00000
 4060.00      0.00000
 4065.00      0.00000
 4070.00      0.00000
 4075.00      0.00000
 4080.00      0.00000
 4085.00      0.00000
 4090.00      0.00000
 4095.00      0.00000
 4100.00      0.00000
 4105.00      0.00000
 4110.00      0.00000
 4115.00      0.00000
 4120.00      0.00000
 4125.00      0.00000
 4130.00      0.00000
 4135.00      0.00000
 4140.00      0.00000
 4145.00      0.00000
 4150.00      0.00000
 4155.00      0.00000
 4160.00      0.00000
 4165.00      0.00000
 4170.00      0.00000
 4175.00      0.00000
 4180.00      0.00000
 4185.00      0.00000
 4190.00      0.00000
 4195.00      0.00000
 4200.00      0.00000
 4205.00      0.00000
 4210.00      0.00000
 4215.00      0.00000
 4220.00      0.00000
 4225.00      0.00000
 4230.00      0.00000
 4235.00      0.00000
 4240.00      0.00000
 4245.00      0.00000
 4250.00      0.00000
 4255.00      0.00000
 4260.00      0.00000
 4265.00      0.00000
 4270.00      0.00000
 4275.00      0.00000
 4280.00      0.00000
 4285.00      0.00000
 4290.00      0.00000
 4295.00      0.00000
 4300.00      0.00000
 4305.00      0.00000
 4310.00      0.00000
 4315.00      0.00000
 4320.00      0.00000
 4325.00      0.00000
 4330.00      0.00000
 4335.00      0.00000
 4340.00      0.00000
 4345.00      0.00000
 4350.00      0.00000
 4355.00      0.00000
 4360.00      0.00000
 4365.00      0.00000
 4370.00      0.00000
 4375.00      0.00000
 4380.00      0.00000
 4385.00      0.00000
 4390.00      0.00000
 4395.00      0.00000
 4400.00      0.00000
 4405.00      0.00000
 4410.00      0.00000
 4415.00      0.00000
 4420.00      0.00000
 4425.00      0.00000
 4430.00      0.00000
 4435.00      0.00000
 4440.00      0.00000
 4445.00      0.00000
 4450.00      0.00000
 4455.00      0.00000
 4460.00      0.00000
 4465.00      0.00000
 4470.00      0.00000
 4475.00      0.00000
 4480.00      0.00000
 4485.00      0.00000
 4490.00      0.00000
 4495.00      0.00000
 4500.00      0.00000
 4505.00      0.00000
 4510.00      0.00000
 4515.00      0.00000
 4520.00      0.00000
 4525.00      0.00000
 4530.00      0.00000
 4535.00      0.00000
 4540.00      0.00000
 4545.00      0.00000
 4550.00      0.00000
 4555.00      0.00000
 4560.00      0.00000
 4565.00      0.00000
 4570.00      0.00000
 4575.00      0.00000
 4580.00      0.00000
 4585.00      0.00000
 4590.00      0.00000
 4595.00      0.00000
 4600.00      0.00000
 4605.00      0.00000
 4610.00      0.00000
 4615.00      0.00000
 4620.00      0.00000
 4625.00      0.00000
 4630.00      0.00000
 4635.00      0.00000
 4640.00      0.00000
 4645.00      0.00000
 4650.00      0.00000
 4655.00      0.00000
 4660.00      0.00000
 4665.00      0.00000
 4670.00      0.00000
 4675.00      0.00000
 4680.00      0.00000
 4685.00      0.00000
 4690.00      0.00000
 4695.00      0.00000
 4700.00      0.00000
 4705.00      0.00000
 4710.00      0.00000
 4715.00      0.00000
 4720.00      0.00000
 4725.00      0.00000
 4730.00      0.00000
 4735.00      0.00000
 4740.00      0.00000
 4745.00      0.00000
 4750.00      0.00000
 4755.00      0.00000
 4760.00      0.00000
 4765.00      0.00000
 4770.00      0.00000
 4775.00      0.00000
 4780.00      0.00000
 4785.00      0.00000
 4790.00      0.00000
 4795.00      0.00000
 4800.00      0.00000
 4805.00      0.00000
 4810.00      0.00000
 4815.00      0.00000
 4820.00      0.00000
 4825.00      0.00000
 4830.00      0.00000
 4835.00      0.00000
 4840.00      0.00000
 4845.00      0.00000
 4850.00      0.00000
 4855.00      0.00000
 4860.00      0.00000
 4865.00      0.00000
 4870.00      0.00000
 4875.00      0.00000
 4880.00      0.00000
 4885.00      0.00000
 4890.00      0.00000
 4895.00      0.00000
 4900.00      0.00000
 4905.00      0.00000
 4910.00      0.00000
 4915.00      0.00000
 4920.00      0.00000
 4925.00      0.00000
 4930.00      0.00000
 4935.00      0.00000
 4940.00      0.00000
 4945.00      0.00000
 4950.00      0.00000
 4955.00      0.00000
 4960.00      0.00000
 4965.00      0.00000
 4970.00      0.00000
 4975.00      0.00000
 4980.00      0.00000
 4985.00      0.00000
 4990.00      0.00000
 4995.00      0.00000
 5000.00      0.00000
 5005.00      0.00000
 5010.00      0.00000
 5015.00      0.00000
 5020.00      0.00000
 5025.00      0.00000
 5030.00      0.00000
 5035.00      0.00000
 5040.00      0.00000
 5045.00      0.00000
 5050.00      0.00000
 5055.00      0.00000
 5060.00      0.00000
 5065.00      0.00000
 5070.00      0.00000
 5075.00      0.00000
 5080.00      0.00000
 5085.00      0.00000
 5090.00      0.00000
 5095.00      0.00000
 5100.00      0.00000
 5105.00      0.00000
 5110.00      0.00000
 5115.00      0.00000
 5120.00      0.00000
 5125.00      0.00000
 5130.00      0.00000
 5135.00      0.00000
 5140.00      0.00000
 5145.00      0.00000
 5150.00      0.00000
 5155.00      0.00000
 5160.00      0.00000
 5165.00      0.00000
 5170.00      0.00000
 5175.00      0.00000
 5180.00      0.00000
 5185.00      0.00000
 5190.00      0.00000
 5195.00      0.00000
 5200.00      0.00000
 5205.00      0.00000
 5210.00      0.00000
 5215.00      0.00000
 5220.00      0.00000
 5225.00      0.00000
 5230.00      0.00000
 5235.00      0.00000
 5240.00      0.00000
 5245.00      0.00000
 5250.00      0.00000
 5255.00      0.00000
 5260.00      0.00000
 5265.00      0.00000
 5270.00      0.00000
 5275.00      0.00000
 5280.00      0.00000
 5285.00      0.00000
 5290.00      0.00000
 5295.00      0.00000
 5300.00      0.00000
 5305.00      0.00000
 5310.00      0.00000
 5315.00      0.00000
 5320.00      0.00000
 5325.00      0.00000
 5330.00      0.00000
 5335.00      0.00000
 5340.00      0.00000
 5345.00      0.00000
 5350.00      0.00000
 5355.00      0.00000
 5360.00      0.00000
 5365.00      0.00000
 5370.00      0.00000
 5375.00      0.00000
 5380.00      0.00000
 5385.00      0.00000
 5390.00      0.00000
 5395.00      0.00000
 5400.00      0.00000
 5405.00      0.00000
 5410.00      0.00000
 5415.00      0.00000
 5420.00      0.00000
 5425.00      0.00001
 5430.00      0.00001
 5435.00      0.00001
 5440.00      0.00001
 5445.00      0.00001
 5450.00      0.00001
 5455.00      0.00001
 5460.00      0.00001
 5465.00      0.00001
 5470.00      0.00001
 5475.00      0.00002
 5480.00      0.00002
 5485.00      0.00002
 5490.00      0.00003
 5495.00      0.00003
 5500.00      0.00004
 5505.00      0.00004
 5510.00      0.00005
 5515.00      0.00006
 5520.00      0.00007
 5525.00      0.00008
 5530.00      0.00010
 5535.00      0.00012
 5540.00      0.00014
 5545.00      0.00017
 5550.00      0.00021
 5555.00      0.00026
 5560.00      0.00032
 5565.00      0.00040
 5570.00      0.00051
 5575.00      0.00064
 5580.00      0.00081
 5585.00      0.00105
 5590.00      0.00136
 5595.00      0.00177
 5600.00      0.00233
 5605.00      0.00310
 5610.00      0.00415
 5615.00      0.00564
 5620.00      0.00773
 5625.00      0.01063
 5630.00      0.01487
 5635.00      0.02091
 5640.00      0.02939
 5645.00      0.04160
 5650.00      0.05871
 5655.00      0.08154
 5660.00      0.11140
 5665.00      0.14733
 5670.00      0.18817
 5675.00      0.23126
 5680.00      0.27355
 5685.00      0.31100
 5690.00      0.34097
 5695.00      0.36416
 5700.00      0.37971
 5705.00      0.38989
 5710.00      0.39643
 5715.00      0.40058
 5720.00      0.40326
 5725.00      0.40501
 5730.00      0.40624
 5735.00      0.40689
 5740.00      0.40719
 5745.00      0.40725
 5750.00      0.40695
 5755.00      0.40646
 5760.00      0.40582
 5765.00      0.40508
 5770.00      0.40441
 5775.00      0.40372
 5780.00      0.40321
 5785.00      0.40289
 5790.00      0.40282
 5795.00      0.40299
 5800.00      0.40347
 5805.00      0.40420
 5810.00      0.40512
 5815.00      0.40623
 5820.00      0.40740
 5825.00      0.40855
 5830.00      0.40968
 5835.00      0.41078
 5840.00      0.41172
 5845.00      0.41251
 5850.00      0.41312
 5855.00      0.41353
 5860.00      0.41380
 5865.00      0.41387
 5870.00      0.41377
 5875.00      0.41359
 5880.00      0.41333
 5885.00      0.41304
 5890.00      0.41274
 5895.00      0.41243
 5900.00      0.41229
 5905.00      0.41220
 5910.00      0.41221
 5915.00      0.41245
 5920.00      0.41284
 5925.00      0.41339
 5930.00      0.41412
 5935.00      0.41499
 5940.00      0.41596
 5945.00      0.41695
 5950.00      0.41797
 5955.00      0.41906
 5960.00      0.42013
 5965.00      0.42116
 5970.00      0.42209
 5975.00      0.42303
 5980.00      0.42387
 5985.00      0.42460
 5990.00      0.42519
 5995.00      0.42593
 6000.00      0.42648
 6005.00      0.42715
 6010.00      0.42776
 6015.00      0.42839
 6020.00      0.42898
 6025.00      0.42952
 6030.00      0.43007
 6035.00      0.43055
 6040.00      0.43095
 6045.00      0.43127
 6050.00      0.43147
 6055.00      0.43157
 6060.00      0.43155
 6065.00      0.43149
 6070.00      0.43137
 6075.00      0.43111
 6080.00      0.43082
 6085.00      0.43048
 6090.00      0.43010
 6095.00      0.42977
 6100.00      0.42952
 6105.00      0.42931
 6110.00      0.42926
 6115.00      0.42946
 6120.00      0.42985
 6125.00      0.43036
 6130.00      0.43106
 6135.00      0.43194
 6140.00      0.43294
 6145.00      0.43400
 6150.00      0.43515
 6155.00      0.43643
 6160.00      0.43772
 6165.00      0.43891
 6170.00      0.43997
 6175.00      0.44092
 6180.00      0.44200
 6185.00      0.44278
 6190.00      0.44341
 6195.00      0.44395
 6200.00      0.44440
 6205.00      0.44462
 6210.00      0.44479
 6215.00      0.44500
 6220.00      0.44519
 6225.00      0.44538
 6230.00      0.44563
 6235.00      0.44596
 6240.00      0.44637
 6245.00      0.44682
 6250.00      0.44728
 6255.00      0.44779
 6260.00      0.44835
 6265.00      0.44886
 6270.00      0.44931
 6275.00      0.44965
 6280.00      0.44993
 6285.00      0.45013
 6290.00      0.45025
 6295.00      0.45025
 6300.00      0.45019
 6305.00      0.45007
 6310.00      0.44992
 6315.00      0.44976
 6320.00      0.44960
 6325.00      0.44942
 6330.00      0.44936
 6335.00      0.44926
 6340.00      0.44927
 6345.00      0.44945
 6350.00      0.44975
 6355.00      0.45006
 6360.00      0.45041
 6365.00      0.45106
 6370.00      0.45166
 6375.00      0.45230
 6380.00      0.45298
 6385.00      0.45368
 6390.00      0.45438
 6395.00      0.45507
 6400.00      0.45576
 6405.00      0.45624
 6410.00      0.45668
 6415.00      0.45715
 6420.00      0.45756
 6425.00      0.45790
 6430.00      0.45825
 6435.00      0.45865
 6440.00      0.45907
 6445.00      0.45938
 6450.00      0.45979
 6455.00      0.46017
 6460.00      0.46057
 6465.00      0.46095
 6470.00      0.46136
 6475.00      0.46184
 6480.00      0.46233
 6485.00      0.46272
 6490.00      0.46314
 6495.00      0.46344
 6500.00      0.46378
 6505.00      0.46398
 6510.00      0.46412
 6515.00      0.46429
 6520.00      0.46447
 6525.00      0.46455
 6530.00      0.46470
 6535.00      0.46488
 6540.00      0.46503
 6545.00      0.46518
 6550.00      0.46547
 6555.00      0.46579
 6560.00      0.46621
 6565.00      0.46671
 6570.00      0.46724
 6575.00      0.46787
 6580.00      0.46859
 6585.00      0.46935
 6590.00      0.47011
 6595.00      0.47086
 6600.00      0.47157
 6605.00      0.47229
 6610.00      0.47294
 6615.00      0.47359
 6620.00      0.47420
 6625.00      0.47470
 6630.00      0.47510
 6635.00      0.47550
 6640.00      0.47583
 6645.00      0.47608
 6650.00      0.47632
 6655.00      0.47652
 6660.00      0.47679
 6665.00      0.47694
 6670.00      0.47711
 6675.00      0.47737
 6680.00      0.47762
 6685.00      0.47783
 6690.00      0.47807
 6695.00      0.47846
 6700.00      0.47879
 6705.00      0.47920
 6710.00      0.47953
 6715.00      0.48002
 6720.00      0.48057
 6725.00      0.48093
 6730.00      0.48126
 6735.00      0.48160
 6740.00      0.48186
 6745.00      0.48199
 6750.00      0.48208
